Data from BA28469_Reflection_00007.txt Node
Date: Mon Nov 18 15:17:59 EST 2019
User: vgr7
Spectrometer: USB2G7710
Scans to average: 3
Trigger mode: 4
Integration Time (sec): 2.000000E-2
Electric dark correction enabled: true
Boxcar width: 10
XAxis mode: Wavelengths
Number of Pixels in Spectrum: 2048
>>>>>Begin Spectral Data<<<<<
177.721	1.91
178.105	-1566.67
178.488	11.17
178.871	83.59
179.254	58.2
179.636	-6566.67
180.019	108.18
180.402	78.95
180.785	130.43
181.168	24.96
181.55	287.79
181.933	107.33
182.316	159.26
182.698	166.31
183.081	364.05
183.463	274.66
183.846	285.06
184.228	571.98
184.611	293.94
184.993	24544.44
185.376	-1182.7
185.758	-650.58
186.14	-431.49
186.522	-2000.63
186.904	-783
187.287	1014.45
187.669	-487.22
188.051	-674.05
188.433	-223.93
188.815	-129.89
189.197	-119.08
189.579	-104.79
189.961	-92.22
190.342	-79.76
190.724	-34.48
191.106	-71.4
191.488	-70.57
191.869	-56.53
192.251	-73.14
192.633	-62.15
193.014	-63.44
193.396	-74.07
193.777	-74.33
194.159	-85.46
194.54	-79.36
194.922	-77.71
195.303	-71.4
195.684	-78.58
196.065	-70.89
196.447	-61.16
196.828	-74.13
197.209	-62.55
197.59	-72.34
197.971	-74.96
198.352	-36.55
198.733	-119.57
199.114	-58.02
199.495	-69.19
199.876	-71.98
200.257	-76.7
200.638	-67.78
201.018	-71.23
201.399	-54.23
201.78	-50.56
202.16	-63.79
202.541	-86.78
202.922	-116.06
203.302	-170.23
203.683	-158.76
204.063	-154.59
204.444	-179.35
204.824	-187.63
205.204	-201.45
205.585	-194.39
205.965	-181.84
206.345	-206.62
206.725	-178.84
207.106	-258.34
207.486	-259.64
207.866	-298.56
208.246	-264.17
208.626	-306.7
209.006	-266.91
209.386	-301.92
209.766	-253.12
210.145	-183.49
210.525	-161.02
210.905	-168.22
211.285	-141.42
211.664	-128.26
212.044	-108.56
212.424	-100.42
212.803	-107.31
213.183	-80.06
213.562	-73.52
213.942	-65.61
214.321	-63.15
214.701	-59.67
215.08	-57.8
215.459	-50.23
215.838	-41.42
216.218	-44.76
216.597	-28.41
216.976	-36.71
217.355	-32.55
217.734	-27.53
218.113	-20.8
218.492	-21.33
218.871	-16.08
219.25	-14.13
219.629	-19.96
220.008	-28.05
220.387	-33.41
220.766	-27.92
221.144	-41.43
221.523	-41.41
221.902	-44.53
222.28	-56.96
222.659	-45.47
223.037	-43.52
223.416	-56.07
223.794	-64.07
224.173	-61.68
224.551	-74.79
224.929	-64.63
225.308	-54.33
225.686	-48.85
226.064	-47.11
226.442	-35.57
226.821	-28.67
227.199	-25.09
227.577	-25.35
227.955	-26.67
228.333	-22.62
228.711	-19.22
229.089	-15.98
229.467	-14.81
229.845	-14.85
230.222	-15.03
230.6	-15.41
230.978	-16.37
231.356	-13.09
231.733	-10.2
232.111	-8.75
232.488	-7.51
232.866	-5.89
233.243	-4.53
233.621	-3.81
233.998	-3.02
234.376	-4.93
234.753	-5.55
235.13	-5.44
235.508	-4.3
235.885	-3.74
236.262	-4.35
236.639	-5.39
237.016	-5.86
237.393	-4.31
237.77	-3.84
238.147	-2.29
238.524	-1.48
238.901	-0.2
239.278	0.64
239.655	0.89
240.032	0.96
240.409	0.49
240.785	0.43
241.162	0.66
241.539	0.56
241.915	0.43
242.292	0.67
242.668	0.86
243.045	1.04
243.421	1.02
243.798	1.2
244.174	1.17
244.551	1.41
244.927	1.3
245.303	1.09
245.679	1.3
246.056	1.29
246.432	1.22
246.808	1.18
247.184	0.89
247.56	0.77
247.936	0.85
248.312	1.07
248.688	1.07
249.064	1.04
249.44	1.2
249.815	1.26
250.191	1.33
250.567	1.15
250.943	0.92
251.318	1.17
251.694	1.05
252.069	0.93
252.445	0.82
252.82	0.86
253.196	1.2
253.571	1.28
253.947	1.48
254.322	1.77
254.697	1.72
255.073	1.73
255.448	1.56
255.823	1.57
256.198	1.59
256.573	1.73
256.948	1.74
257.323	1.69
257.698	1.76
258.073	1.75
258.448	1.8
258.823	1.94
259.198	1.84
259.573	2.07
259.948	2.2
260.322	2.29
260.697	2.39
261.072	2.3
261.446	2.23
261.821	2.14
262.195	2.25
262.57	2.18
262.944	2.16
263.319	2.24
263.693	2.14
264.067	2.22
264.442	2.28
264.816	2.25
265.19	2.34
265.564	2.22
265.938	2.14
266.313	2.22
266.687	2.27
267.061	2.34
267.435	2.14
267.809	2.12
268.183	2.09
268.556	1.82
268.93	1.83
269.304	1.9
269.678	1.98
270.051	1.7
270.425	1.9
270.799	1.97
271.172	2.07
271.546	2.19
271.919	2.17
272.293	2.14
272.666	2.15
273.04	2.05
273.413	2.09
273.787	2.22
274.16	2.22
274.533	2.07
274.906	1.94
275.279	1.98
275.653	1.87
276.026	1.95
276.399	2.03
276.772	2.1
277.145	1.94
277.518	1.94
277.891	2.05
278.263	1.92
278.636	1.91
279.009	1.79
279.382	1.86
279.755	1.64
280.127	1.69
280.5	1.83
280.872	1.93
281.245	1.94
281.617	2.01
281.99	2.14
282.362	2.28
282.735	2.26
283.107	2.35
283.479	2.52
283.852	2.47
284.224	2.45
284.596	2.38
284.968	2.45
285.34	2.46
285.713	2.37
286.085	2.44
286.457	2.4
286.829	2.5
287.201	2.4
287.572	2.59
287.944	2.56
288.316	2.54
288.688	2.53
289.06	2.49
289.431	2.42
289.803	2.34
290.175	2.29
290.546	2.47
290.918	2.4
291.289	2.32
291.661	2.38
292.032	2.49
292.403	2.46
292.775	2.51
293.146	2.48
293.517	2.56
293.889	2.61
294.26	2.73
294.631	2.65
295.002	2.62
295.373	2.54
295.744	2.59
296.115	2.52
296.486	2.44
296.857	2.46
297.228	2.44
297.599	2.38
297.97	2.44
298.34	2.35
298.711	2.34
299.082	2.32
299.452	2.21
299.823	2.16
300.194	2.19
300.564	2.22
300.935	2.25
301.305	2.17
301.676	2.08
302.046	2.06
302.416	2.1
302.787	2.14
303.157	2.17
303.527	2.09
303.897	2.09
304.267	2.35
304.637	2.36
305.008	2.44
305.378	2.53
305.748	2.58
306.117	2.53
306.487	2.64
306.857	2.67
307.227	2.85
307.597	2.93
307.967	2.82
308.336	2.76
308.706	2.77
309.076	2.93
309.445	2.86
309.815	2.76
310.184	2.78
310.554	2.81
310.923	2.83
311.293	2.83
311.662	2.79
312.031	2.69
312.401	2.7
312.77	2.69
313.139	2.79
313.508	2.78
313.877	2.78
314.246	2.67
314.616	2.73
314.985	2.66
315.353	2.49
315.722	2.81
316.091	2.86
316.46	2.83
316.829	2.83
317.198	3.07
317.567	3.15
317.935	3.13
318.304	3.18
318.672	3.14
319.041	3.33
319.41	3.48
319.778	3.43
320.147	3.54
320.515	3.6
320.883	3.53
321.252	3.56
321.62	3.72
321.988	3.87
322.357	3.9
322.725	3.89
323.093	4.08
323.461	3.87
323.829	3.92
324.197	4.06
324.565	4.11
324.933	4.04
325.301	4
325.669	4.13
326.037	4.14
326.405	4.22
326.772	4.19
327.14	4.21
327.508	4.23
327.875	4.18
328.243	4.16
328.61	4.21
328.978	4.32
329.346	4.41
329.713	4.33
330.08	4.34
330.448	4.43
330.815	4.45
331.182	4.57
331.55	4.6
331.917	4.55
332.284	4.66
332.651	4.63
333.018	4.74
333.385	4.67
333.752	4.86
334.119	4.92
334.486	4.87
334.853	4.88
335.22	4.88
335.587	4.88
335.954	4.81
336.32	4.82
336.687	4.69
337.054	4.7
337.42	4.78
337.787	4.81
338.153	4.78
338.52	4.91
338.886	4.82
339.253	4.7
339.619	4.65
339.986	4.55
340.352	4.68
340.718	4.7
341.084	4.68
341.451	4.58
341.817	4.5
342.183	4.42
342.549	4.45
342.915	4.5
343.281	4.55
343.647	4.58
344.013	4.54
344.379	4.57
344.745	4.51
345.11	4.57
345.476	4.61
345.842	4.64
346.208	4.53
346.573	4.58
346.939	4.7
347.304	4.69
347.67	4.62
348.035	4.59
348.401	4.61
348.766	4.69
349.132	4.7
349.497	4.72
349.862	4.85
350.228	4.85
350.593	4.7
350.958	4.83
351.323	4.88
351.688	4.91
352.053	4.96
352.418	5.02
352.783	5.02
353.148	4.95
353.513	4.94
353.878	5.03
354.243	5.03
354.608	5.03
354.972	5.14
355.337	5.26
355.702	5.32
356.066	5.33
356.431	5.24
356.795	5.21
357.16	5.25
357.524	5.15
357.889	5.14
358.253	5.25
358.618	5.22
358.982	5.15
359.346	5.16
359.71	5.2
360.075	5.16
360.439	5.12
360.803	5.14
361.167	5.13
361.531	5.06
361.895	5.04
362.259	5.02
362.623	4.93
362.987	4.81
363.351	4.71
363.714	4.7
364.078	4.71
364.442	4.68
364.806	4.63
365.169	4.68
365.533	4.65
365.896	4.59
366.26	4.51
366.623	4.57
366.987	4.55
367.35	4.47
367.714	4.43
368.077	4.39
368.44	4.31
368.803	4.26
369.167	4.28
369.53	4.28
369.893	4.31
370.256	4.36
370.619	4.37
370.982	4.34
371.345	4.32
371.708	4.37
372.071	4.31
372.434	4.28
372.797	4.23
373.159	4.17
373.522	4.2
373.885	4.23
374.247	4.22
374.61	4.22
374.973	4.17
375.335	4.17
375.698	4.11
376.06	4.11
376.423	4.16
376.785	4.15
377.147	4.18
377.51	4.11
377.872	4.07
378.234	4.1
378.596	4.09
378.958	4.03
379.321	3.93
379.683	3.94
380.045	3.95
380.407	3.89
380.769	3.91
381.13	3.88
381.492	3.83
381.854	3.79
382.216	3.75
382.578	3.71
382.939	3.63
383.301	3.65
383.663	3.59
384.024	3.53
384.386	3.46
384.747	3.41
385.109	3.4
385.47	3.34
385.832	3.28
386.193	3.31
386.554	3.33
386.916	3.36
387.277	3.36
387.638	3.36
387.999	3.36
388.36	3.35
388.721	3.36
389.082	3.34
389.443	3.27
389.804	3.27
390.165	3.28
390.526	3.3
390.887	3.27
391.248	3.3
391.609	3.29
391.969	3.31
392.33	3.25
392.691	3.22
393.051	3.23
393.412	3.24
393.772	3.19
394.133	3.17
394.493	3.12
394.854	3.08
395.214	3.02
395.574	3.02
395.935	2.96
396.295	2.92
396.655	2.9
397.015	2.9
397.376	2.84
397.736	2.82
398.096	2.83
398.456	2.81
398.816	2.8
399.176	2.77
399.535	2.74
399.895	2.75
400.255	2.73
400.615	2.72
400.975	2.71
401.334	2.7
401.694	2.67
402.054	2.66
402.413	2.69
402.773	2.71
403.132	2.68
403.492	2.68
403.851	2.69
404.211	2.68
404.57	2.72
404.929	2.74
405.288	2.71
405.648	2.67
406.007	2.68
406.366	2.65
406.725	2.67
407.084	2.67
407.443	2.66
407.802	2.69
408.161	2.67
408.52	2.62
408.879	2.59
409.238	2.6
409.596	2.6
409.955	2.57
410.314	2.58
410.673	2.58
411.031	2.57
411.39	2.53
411.748	2.55
412.107	2.53
412.465	2.47
412.824	2.47
413.182	2.45
413.54	2.46
413.899	2.46
414.257	2.44
414.615	2.42
414.974	2.42
415.332	2.4
415.69	2.4
416.048	2.41
416.406	2.43
416.764	2.41
417.122	2.41
417.48	2.41
417.838	2.4
418.195	2.4
418.553	2.41
418.911	2.43
419.269	2.42
419.626	2.4
419.984	2.41
420.342	2.41
420.699	2.4
421.057	2.4
421.414	2.39
421.772	2.38
422.129	2.37
422.486	2.36
422.844	2.35
423.201	2.34
423.558	2.34
423.915	2.34
424.273	2.34
424.63	2.33
424.987	2.33
425.344	2.31
425.701	2.3
426.058	2.28
426.415	2.26
426.772	2.24
427.128	2.23
427.485	2.23
427.842	2.22
428.199	2.23
428.555	2.22
428.912	2.23
429.269	2.22
429.625	2.22
429.982	2.22
430.338	2.23
430.695	2.23
431.051	2.21
431.407	2.2
431.764	2.19
432.12	2.18
432.476	2.18
432.832	2.18
433.189	2.19
433.545	2.21
433.901	2.21
434.257	2.21
434.613	2.21
434.969	2.21
435.325	2.21
435.681	2.2
436.036	2.2
436.392	2.21
436.748	2.22
437.104	2.22
437.459	2.22
437.815	2.22
438.171	2.23
438.526	2.26
438.882	2.26
439.237	2.28
439.593	2.28
439.948	2.28
440.304	2.28
440.659	2.28
441.014	2.26
441.369	2.26
441.725	2.25
442.08	2.26
442.435	2.26
442.79	2.26
443.145	2.25
443.5	2.24
443.855	2.24
444.21	2.23
444.565	2.23
444.92	2.24
445.275	2.24
445.629	2.23
445.984	2.21
446.339	2.2
446.693	2.18
447.048	2.18
447.403	2.18
447.757	2.17
448.112	2.15
448.466	2.15
448.82	2.16
449.175	2.17
449.529	2.17
449.883	2.15
450.238	2.14
450.592	2.16
450.946	2.15
451.3	2.13
451.654	2.14
452.008	2.14
452.362	2.12
452.716	2.13
453.07	2.14
453.424	2.12
453.778	2.13
454.132	2.14
454.486	2.13
454.839	2.12
455.193	2.13
455.547	2.14
455.9	2.16
456.254	2.15
456.607	2.13
456.961	2.12
457.314	2.13
457.668	2.12
458.021	2.11
458.375	2.12
458.728	2.12
459.081	2.1
459.434	2.08
459.787	2.07
460.141	2.06
460.494	2.06
460.847	2.06
461.2	2.04
461.553	2.04
461.906	2.06
462.259	2.08
462.611	2.08
462.964	2.08
463.317	2.06
463.67	2.07
464.022	2.09
464.375	2.08
464.728	2.09
465.08	2.1
465.433	2.1
465.785	2.11
466.138	2.12
466.49	2.12
466.843	2.13
467.195	2.13
467.547	2.13
467.899	2.14
468.252	2.16
468.604	2.2
468.956	2.2
469.308	2.19
469.66	2.16
470.012	2.16
470.364	2.15
470.716	2.19
471.068	2.15
471.42	2.17
471.772	2.19
472.123	2.2
472.475	2.22
472.827	2.25
473.178	2.25
473.53	2.25
473.882	2.25
474.233	2.26
474.585	2.28
474.936	2.29
475.288	2.28
475.639	2.28
475.99	2.25
476.342	2.25
476.693	2.24
477.044	2.28
477.395	2.28
477.746	2.29
478.097	2.27
478.448	2.29
478.8	2.28
479.15	2.26
479.501	2.26
479.852	2.25
480.203	2.25
480.554	2.24
480.905	2.24
481.255	2.25
481.606	2.25
481.957	2.26
482.307	2.26
482.658	2.27
483.009	2.27
483.359	2.27
483.709	2.28
484.06	2.27
484.41	2.26
484.761	2.26
485.111	2.26
485.461	2.26
485.811	2.26
486.162	2.26
486.512	2.28
486.862	2.27
487.212	2.28
487.562	2.28
487.912	2.28
488.262	2.27
488.612	2.27
488.961	2.27
489.311	2.26
489.661	2.26
490.011	2.27
490.36	2.26
490.71	2.27
491.06	2.26
491.409	2.26
491.759	2.26
492.108	2.26
492.458	2.26
492.807	2.26
493.157	2.26
493.506	2.25
493.855	2.23
494.204	2.23
494.554	2.23
494.903	2.22
495.252	2.22
495.601	2.25
495.95	2.26
496.299	2.27
496.648	2.27
496.997	2.27
497.346	2.27
497.695	2.29
498.043	2.31
498.392	2.32
498.741	2.34
499.09	2.35
499.438	2.37
499.787	2.38
500.135	2.4
500.484	2.43
500.832	2.45
501.181	2.48
501.529	2.51
501.878	2.55
502.226	2.56
502.574	2.59
502.923	2.6
503.271	2.63
503.619	2.65
503.967	2.67
504.315	2.7
504.663	2.72
505.011	2.73
505.359	2.74
505.707	2.79
506.055	2.82
506.403	2.84
506.751	2.87
507.098	2.91
507.446	2.94
507.794	2.95
508.141	2.97
508.489	2.99
508.837	3.02
509.184	3.05
509.531	3.07
509.879	3.11
510.226	3.15
510.574	3.15
510.921	3.19
511.268	3.22
511.616	3.25
511.963	3.31
512.31	3.35
512.657	3.39
513.004	3.41
513.351	3.47
513.698	3.53
514.045	3.55
514.392	3.6
514.739	3.63
515.086	3.7
515.432	3.76
515.779	3.8
516.126	3.85
516.473	3.89
516.819	3.96
517.166	4
517.512	4.04
517.859	4.09
518.205	4.13
518.552	4.18
518.898	4.23
519.245	4.27
519.591	4.32
519.937	4.36
520.283	4.42
520.629	4.47
520.976	4.51
521.322	4.57
521.668	4.62
522.014	4.71
522.36	4.78
522.706	4.85
523.052	4.93
523.398	5.02
523.743	5.09
524.089	5.17
524.435	5.25
524.781	5.33
525.126	5.42
525.472	5.5
525.817	5.58
526.163	5.65
526.509	5.71
526.854	5.77
527.199	5.83
527.545	5.88
527.89	5.94
528.235	6.01
528.581	6.08
528.926	6.15
529.271	6.2
529.616	6.26
529.961	6.33
530.306	6.41
530.651	6.48
530.996	6.58
531.341	6.66
531.686	6.75
532.031	6.85
532.376	6.95
532.721	7.04
533.065	7.12
533.41	7.23
533.755	7.35
534.099	7.48
534.444	7.61
534.788	7.74
535.133	7.86
535.477	7.99
535.822	8.13
536.166	8.3
536.51	8.46
536.855	8.65
537.199	8.83
537.543	9.01
537.887	9.18
538.231	9.36
538.576	9.57
538.92	9.76
539.264	9.94
539.608	10.12
539.951	10.28
540.295	10.44
540.639	10.61
540.983	10.77
541.327	10.93
541.671	11.08
542.014	11.26
542.358	11.42
542.701	11.6
543.045	11.76
543.389	11.92
543.732	12.09
544.075	12.28
544.419	12.47
544.762	12.68
545.105	12.89
545.449	13.09
545.792	13.32
546.135	13.56
546.478	13.82
546.821	14.08
547.165	14.39
547.508	14.7
547.851	14.97
548.194	15.24
548.536	15.51
548.879	15.85
549.222	16.13
549.565	16.45
549.908	16.75
550.25	17.07
550.593	17.38
550.936	17.71
551.278	18.01
551.621	18.35
551.963	18.65
552.306	18.98
552.648	19.32
552.991	19.65
553.333	19.93
553.675	20.21
554.017	20.52
554.36	20.79
554.702	21.09
555.044	21.39
555.386	21.7
555.728	22
556.07	22.28
556.412	22.61
556.754	22.9
557.096	23.22
557.438	23.55
557.78	23.87
558.121	24.27
558.463	24.57
558.805	24.91
559.147	25.22
559.488	25.52
559.83	25.79
560.171	26.07
560.513	26.37
560.854	26.67
561.196	26.99
561.537	27.3
561.878	27.64
562.22	27.95
562.561	28.25
562.902	28.54
563.243	28.8
563.584	29.08
563.925	29.34
564.266	29.53
564.607	29.79
564.948	30.05
565.289	30.25
565.63	30.46
565.971	30.69
566.312	30.91
566.653	31.21
566.993	31.46
567.334	31.68
567.675	31.96
568.015	32.21
568.356	32.41
568.696	32.64
569.037	32.85
569.377	33.05
569.718	33.29
570.058	33.5
570.398	33.73
570.739	33.95
571.079	34.15
571.419	34.45
571.759	34.67
572.099	34.83
572.439	35
572.779	35.21
573.119	35.38
573.459	35.58
573.799	35.74
574.139	35.93
574.479	36.13
574.819	36.27
575.158	36.43
575.498	36.62
575.838	36.76
576.177	36.95
576.517	37.12
576.856	37.31
577.196	37.48
577.535	37.68
577.875	37.84
578.214	38.03
578.553	38.17
578.893	38.35
579.232	38.57
579.571	38.75
579.91	38.94
580.25	39.07
580.589	39.21
580.928	39.38
581.267	39.55
581.606	39.65
581.945	39.84
582.283	39.98
582.622	40.14
582.961	40.34
583.3	40.44
583.639	40.61
583.977	40.72
584.316	40.84
584.654	40.99
584.993	41.12
585.332	41.23
585.67	41.32
586.008	41.43
586.347	41.51
586.685	41.65
587.024	41.74
587.362	41.93
587.7	42.08
588.038	42.13
588.376	42.2
588.715	42.35
589.053	42.42
589.391	42.62
589.729	42.75
590.067	42.83
590.404	42.92
590.742	43.01
591.08	43.13
591.418	43.26
591.756	43.32
592.093	43.46
592.431	43.53
592.769	43.66
593.106	43.73
593.444	43.87
593.781	43.93
594.119	44.05
594.456	44.08
594.793	44.1
595.131	44.2
595.468	44.26
595.805	44.34
596.143	44.35
596.48	44.37
596.817	44.42
597.154	44.5
597.491	44.59
597.828	44.66
598.165	44.71
598.502	44.76
598.839	44.85
599.176	44.93
599.512	45.01
599.849	45.06
600.186	45.19
600.523	45.29
600.859	45.38
601.196	45.48
601.532	45.6
601.869	45.75
602.205	45.88
602.542	45.98
602.878	46.01
603.215	46.16
603.551	46.23
603.887	46.27
604.223	46.3
604.56	46.42
604.896	46.5
605.232	46.6
605.568	46.65
605.904	46.7
606.24	46.74
606.576	46.86
606.912	46.91
607.248	46.88
607.583	46.91
607.919	47.01
608.255	47.02
608.591	47.04
608.926	47.03
609.262	47.06
609.597	47.03
609.933	47.1
610.268	47.1
610.604	47.14
610.939	47.18
611.275	47.28
611.61	47.26
611.945	47.26
612.281	47.27
612.616	47.37
612.951	47.39
613.286	47.41
613.621	47.4
613.956	47.48
614.291	47.57
614.626	47.6
614.961	47.6
615.296	47.72
615.631	47.86
615.966	47.96
616.3	47.99
616.635	48.14
616.97	48.19
617.304	48.25
617.639	48.28
617.973	48.36
618.308	48.38
618.642	48.39
618.977	48.39
619.311	48.47
619.646	48.45
619.98	48.61
620.314	48.64
620.648	48.72
620.983	48.79
621.317	48.84
621.651	48.91
621.985	49.02
622.319	48.95
622.653	48.93
622.987	49.04
623.321	49.1
623.655	49.19
623.988	49.26
624.322	49.34
624.656	49.4
624.99	49.35
625.323	49.3
625.657	49.33
625.99	49.38
626.324	49.29
626.657	49.33
626.991	49.28
627.324	49.34
627.658	49.43
627.991	49.55
628.324	49.6
628.657	49.6
628.991	49.54
629.324	49.61
629.657	49.65
629.99	49.62
630.323	49.65
630.656	49.66
630.989	49.69
631.322	49.66
631.655	49.7
631.987	49.83
632.32	49.98
632.653	50.03
632.986	50.1
633.318	50.17
633.651	50.23
633.984	50.22
634.316	50.16
634.649	50.11
634.981	49.97
635.313	49.95
635.646	49.93
635.978	50.04
636.31	50.04
636.643	50.03
636.975	50.02
637.307	50.05
637.639	50.12
637.971	50.19
638.303	50.3
638.635	50.27
638.967	50.22
639.299	50.13
639.631	50.13
639.963	50.11
640.295	50.07
640.626	50.13
640.958	50.2
641.29	50.31
641.621	50.32
641.953	50.37
642.285	50.45
642.616	50.55
642.948	50.46
643.279	50.49
643.61	50.56
643.942	50.54
644.273	50.52
644.604	50.45
644.936	50.34
645.267	50.34
645.598	50.36
645.929	50.36
646.26	50.39
646.591	50.44
646.922	50.48
647.253	50.59
647.584	50.55
647.915	50.5
648.245	50.51
648.576	50.54
648.907	50.6
649.238	50.57
649.568	50.47
649.899	50.51
650.229	50.54
650.56	50.57
650.89	50.67
651.221	50.58
651.551	50.5
651.882	50.53
652.212	50.49
652.542	50.49
652.872	50.52
653.203	50.62
653.533	50.57
653.863	50.58
654.193	50.57
654.523	50.62
654.853	50.64
655.183	50.51
655.513	50.49
655.843	50.54
656.172	50.58
656.502	50.67
656.832	50.78
657.162	50.81
657.491	50.87
657.821	50.84
658.15	50.89
658.48	51.02
658.809	51.04
659.139	51.09
659.468	51.05
659.798	51.08
660.127	51.06
660.456	51.13
660.785	51.24
661.115	51.31
661.444	51.35
661.773	51.4
662.102	51.59
662.431	51.7
662.76	51.72
663.089	51.71
663.418	51.78
663.747	51.8
664.076	51.84
664.404	51.76
664.733	51.79
665.062	51.81
665.39	51.85
665.719	51.92
666.048	51.87
666.376	51.93
666.705	51.95
667.033	51.97
667.362	52.01
667.69	52.02
668.018	52.04
668.347	52.05
668.675	52.12
669.003	52.14
669.331	52.08
669.659	51.97
669.987	52.02
670.315	51.97
670.643	51.95
670.971	51.97
671.299	51.9
671.627	51.88
671.955	52.01
672.283	51.94
672.61	51.81
672.938	51.85
673.266	51.98
673.593	51.91
673.921	51.86
674.249	51.89
674.576	51.83
674.904	51.74
675.231	51.63
675.558	51.65
675.886	51.66
676.213	51.64
676.54	51.68
676.867	51.72
677.195	51.84
677.522	51.71
677.849	51.73
678.176	51.73
678.503	51.68
678.83	51.77
679.157	51.83
679.484	51.91
679.81	51.87
680.137	51.78
680.464	51.81
680.791	51.74
681.117	51.72
681.444	51.69
681.771	51.81
682.097	51.86
682.424	51.85
682.75	51.73
683.077	51.77
683.403	51.83
683.729	51.81
684.056	51.83
684.382	51.92
684.708	51.81
685.034	51.86
685.36	51.92
685.686	51.75
686.012	51.7
686.339	51.7
686.664	51.77
686.99	51.86
687.316	51.84
687.642	51.9
687.968	51.83
688.294	51.75
688.619	51.59
688.945	51.57
689.271	51.6
689.596	51.64
689.922	51.67
690.247	51.51
690.573	51.64
690.898	51.52
691.224	51.61
691.549	51.68
691.874	51.62
692.2	51.66
692.525	51.74
692.85	51.78
693.175	51.76
693.5	51.68
693.825	51.7
694.15	51.75
694.475	51.92
694.8	51.98
695.125	52.02
695.45	52.09
695.775	52.17
696.099	52.15
696.424	52.21
696.749	52.26
697.073	52.45
697.398	52.42
697.723	52.4
698.047	52.36
698.372	52.32
698.696	52.42
699.02	52.49
699.345	52.53
699.669	52.54
699.993	52.56
700.318	52.74
700.642	52.83
700.966	52.78
701.29	52.74
701.614	52.79
701.938	52.76
702.262	52.92
702.586	52.79
702.91	52.73
703.234	52.8
703.557	52.85
703.881	52.88
704.205	52.68
704.529	52.71
704.852	52.64
705.176	52.81
705.499	52.91
705.823	52.89
706.146	52.77
706.47	52.75
706.793	52.89
707.117	52.73
707.44	52.63
707.763	52.64
708.086	52.47
708.409	52.35
708.733	52.6
709.056	52.54
709.379	52.78
709.702	52.79
710.025	52.81
710.348	52.74
710.671	52.57
710.993	52.77
711.316	52.63
711.639	52.58
711.962	52.61
712.284	52.53
712.607	52.41
712.93	52.44
713.252	52.42
713.575	52.36
713.897	52.47
714.22	52.4
714.542	52.64
714.864	52.78
715.187	52.89
715.509	52.87
715.831	52.74
716.153	52.66
716.475	52.77
716.798	52.78
717.12	52.54
717.442	52.67
717.764	52.52
718.085	52.71
718.407	52.85
718.729	52.76
719.051	52.68
719.373	52.74
719.695	52.76
720.016	52.65
720.338	52.71
720.659	52.52
720.981	52.63
721.302	52.22
721.624	52.28
721.945	52.3
722.267	52.2
722.588	52.06
722.909	52.13
723.231	52.06
723.552	52.05
723.873	52.41
724.194	52.26
724.515	52.51
724.836	52.47
725.157	52.59
725.478	52.6
725.799	52.64
726.12	52.64
726.441	52.88
726.762	52.88
727.083	52.81
727.403	52.94
727.724	52.85
728.045	53.11
728.365	53.08
728.686	52.89
729.006	52.9
729.327	52.93
729.647	52.88
729.967	52.88
730.288	52.76
730.608	52.55
730.928	52.67
731.249	52.41
731.569	52.48
731.889	52.48
732.209	52.5
732.529	52.53
732.849	52.69
733.169	52.47
733.489	52.5
733.809	52.46
734.129	52.64
734.448	52.53
734.768	52.44
735.088	52.43
735.408	52.51
735.727	52.49
736.047	52.75
736.366	52.69
736.686	52.61
737.005	52.9
737.325	53.16
737.644	53.04
737.963	53.15
738.283	53.17
738.602	53.16
738.921	53.12
739.24	53
739.56	52.61
739.879	52.81
740.198	52.97
740.517	52.98
740.836	52.75
741.155	52.98
741.473	53.11
741.792	52.98
742.111	53.15
742.43	53.18
742.748	53.05
743.067	53.25
743.386	53.34
743.704	53
744.023	52.69
744.341	52.7
744.66	52.97
744.978	52.72
745.297	52.56
745.615	52.87
745.933	53.25
746.252	53.41
746.57	53.28
746.888	53.31
747.206	53.12
747.524	53.2
747.842	53.19
748.16	53.1
748.478	53.4
748.796	53.27
749.114	53.5
749.432	53.68
749.749	53.28
750.067	53.33
750.385	53.41
750.703	53.65
751.02	53.61
751.338	53.38
751.655	53.49
751.973	53.65
752.29	53.35
752.608	53.19
752.925	53.5
753.242	53.58
753.56	53.53
753.877	53.62
754.194	53.53
754.511	53.33
754.828	53.3
755.145	53.04
755.462	53.03
755.779	52.9
756.096	52.82
756.413	53.15
756.73	53.17
757.047	53.35
757.364	53.21
757.68	53.04
757.997	52.99
758.314	53.23
758.63	52.94
758.947	52.97
759.264	52.86
759.58	52.54
759.896	52.39
760.213	52.39
760.529	52.6
760.846	52.63
761.162	52.68
761.478	52.74
761.794	52.96
762.11	53.05
762.426	52.89
762.743	53.11
763.059	53.29
763.375	53.24
763.69	53.19
764.006	53.53
764.322	53.76
764.638	53.97
764.954	53.97
765.27	54.12
765.585	53.99
765.901	54.06
766.216	54.28
766.532	54.33
766.848	54.39
767.163	54.41
767.478	54.24
767.794	54.23
768.109	54.26
768.424	54.29
768.74	53.97
769.055	54.18
769.37	54.04
769.685	53.61
770	53.59
770.315	53.61
770.63	53.54
770.945	53.49
771.26	53.1
771.575	53.09
771.89	53.46
772.205	53.68
772.52	54
772.834	54.05
773.149	54.09
773.464	54.01
773.778	53.94
774.093	53.92
774.407	54.44
774.722	54.28
775.036	54.41
775.351	55.21
775.665	55.23
775.979	55.11
776.293	55.41
776.608	55.51
776.922	55.48
777.236	55.23
777.55	55.41
777.864	55.72
778.178	55.38
778.492	55.22
778.806	54.71
779.12	54.39
779.434	54.43
779.747	54.26
780.061	54.27
780.375	54.3
780.689	54.92
781.002	54.63
781.316	54.58
781.629	54.67
781.943	54.13
782.256	54.02
782.57	54.5
782.883	54.21
783.196	53.7
783.51	53.3
783.823	53.22
784.136	53.02
784.449	52.97
784.762	53.28
785.075	53.57
785.388	54.24
785.701	53.93
786.014	53.19
786.327	53.1
786.64	53.62
786.953	54.08
787.266	53.78
787.578	53.85
787.891	53.79
788.204	53.31
788.516	53.47
788.829	53.57
789.141	53.09
789.454	53.38
789.766	54.15
790.079	54.15
790.391	53.88
790.703	53.88
791.016	53.94
791.328	54.15
791.64	53.37
791.952	52.96
792.264	53.2
792.576	53.42
792.888	53.87
793.2	53.36
793.512	52.97
793.824	53.06
794.136	52.64
794.448	52.75
794.76	52.67
795.071	52.4
795.383	52.43
795.695	52.14
796.006	51.93
796.318	52.14
796.629	52.19
796.941	52.09
797.252	52.51
797.564	52.31
797.875	51.6
798.186	51.49
798.497	51.84
798.809	51.69
799.12	51.74
799.431	51.77
799.742	51.87
800.053	51.56
800.364	51.35
800.675	51.58
800.986	51.67
801.297	51.62
801.608	51.94
801.918	52.05
802.229	52.56
802.54	53.27
802.851	52.48
803.161	52.94
803.472	53.3
803.782	52.8
804.093	52.63
804.403	52.98
804.714	52.96
805.024	52.56
805.334	52.81
805.645	53.4
805.955	53.2
806.265	53.06
806.575	53.02
806.885	53.17
807.195	53.17
807.505	53.3
807.815	53.39
808.125	53.25
808.435	53.04
808.745	52.78
809.055	52.3
809.365	52.31
809.674	51.86
809.984	52.54
810.294	52.54
810.603	53.05
810.913	53.06
811.222	53.61
811.532	54.69
811.841	54.84
812.151	54.99
812.46	54.37
812.769	54.55
813.079	54.49
813.388	54.48
813.697	54.73
814.006	53.99
814.315	54.25
814.624	55.06
814.933	54.46
815.242	54.53
815.551	54.54
815.86	54.64
816.169	55.25
816.478	54.24
816.786	53.58
817.095	53.21
817.404	53.96
817.712	54.34
818.021	53.41
818.33	53.56
818.638	53.52
818.947	54.21
819.255	53.89
819.563	54.48
819.872	54.97
820.18	54.55
820.488	54.86
820.796	54.73
821.105	54.7
821.413	55.18
821.721	55.1
822.029	54.95
822.337	55.15
822.645	55.01
822.953	54.95
823.26	55.24
823.568	55.39
823.876	55.13
824.184	55.12
824.491	55.21
824.799	55.1
825.107	55.06
825.414	55.15
825.722	55.34
826.029	55.43
826.337	55.38
826.644	55.69
826.951	55.71
827.259	55.76
827.566	55.4
827.873	55.24
828.18	55.24
828.488	55.61
828.795	55.55
829.102	55.66
829.409	56.09
829.716	56.09
830.023	56.15
830.329	56.58
830.636	56.77
830.943	56.64
831.25	56.71
831.557	56.67
831.863	56.68
832.17	56.49
832.476	56.05
832.783	55.61
833.089	55.05
833.396	55.1
833.702	55.33
834.009	55.76
834.315	55.38
834.621	55.37
834.928	54.88
835.234	54.67
835.54	54.64
835.846	54.53
836.152	54.23
836.458	54.27
836.764	54.14
837.07	53.46
837.376	53.46
837.682	53.65
837.988	53.89
838.293	54.12
838.599	54.37
838.905	54.46
839.211	54.17
839.516	54.34
839.822	54.05
840.127	54.27
840.433	54.95
840.738	55.67
841.044	55.95
841.349	56.12
841.654	56.25
841.959	55.97
842.265	55.52
842.57	56.67
842.875	56.25
843.18	56.03
843.485	56.81
843.79	56.73
844.095	56.55
844.4	56.46
844.705	54.99
845.01	54.21
845.315	52.7
845.619	52.82
845.924	53.45
846.229	53.92
846.533	54.07
846.838	51.9
847.142	51.65
847.447	49.89
847.751	49.15
848.056	48.51
848.36	46.93
848.664	47.78
848.969	45.88
849.273	43.89
849.577	42.74
849.881	42.02
850.185	42.93
850.489	42.16
850.794	41.89
851.097	41.27
851.401	40.07
851.705	41.01
852.009	42.88
852.313	42.39
852.617	42.53
852.92	41.9
853.224	41.61
853.528	43.49
853.831	44.93
854.135	43.97
854.438	43.25
854.742	44.66
855.045	42.9
855.349	42.73
855.652	42.46
855.955	43
856.259	42.11
856.562	41.36
856.865	42.54
857.168	40.06
857.471	40.9
857.774	42.02
858.077	43.19
858.38	42.55
858.683	41.6
858.986	40.01
859.289	38.23
859.592	40.05
859.894	37.26
860.197	36.46
860.5	39.87
860.802	40.63
861.105	40.98
861.407	41.79
861.71	41.6
862.012	42.95
862.315	43.17
862.617	43.91
862.919	42.58
863.222	40.77
863.524	39.83
863.826	41.37
864.128	41.95
864.43	39.15
864.732	39.47
865.034	39.92
865.336	39.33
865.638	40.87
865.94	39.25
866.242	41.07
866.544	42.07
866.846	41.24
867.147	42.65
867.449	44.41
867.751	45.85
868.052	46.64
868.354	47.45
868.655	46.12
868.957	47.31
869.258	50.14
869.56	51.51
869.861	53.68
870.162	52.97
870.463	53.7
870.765	56.77
871.066	53.65
871.367	53.35
871.668	54.17
871.969	53.87
872.27	53.98
872.571	53.03
872.872	54.1
873.173	51.81
873.473	52.13
873.774	51.98
874.075	49.64
874.376	48.5
874.676	49.96
874.977	50.09
875.277	50.25
875.578	48.87
875.878	48.81
876.179	49.78
876.479	49.17
876.78	48.03
877.08	47.33
877.38	49.68
877.68	51.06
877.981	52.21
878.281	52.13
878.581	53.2
