Data from BA57757_Reflection_00032.txt Node
Date: Mon Nov 18 15:01:58 EST 2019
User: vgr7
Spectrometer: USB2G7710
Scans to average: 3
Trigger mode: 4
Integration Time (sec): 2.000000E-2
Electric dark correction enabled: true
Boxcar width: 10
XAxis mode: Wavelengths
Number of Pixels in Spectrum: 2048
>>>>>Begin Spectral Data<<<<<
177.721	-146.34
178.105	-157.84
178.488	1284.1
178.871	-589.66
179.254	84.05
179.636	806.9
180.019	185.43
180.402	21.95
180.785	277.57
181.168	-23.89
181.55	-760.47
181.933	51.27
182.316	32.71
182.698	31.71
183.081	70.02
183.463	11.95
183.846	30.44
184.228	9.81
184.611	25.14
184.993	107.36
185.376	-133.39
185.758	-138.73
186.14	-102.8
186.522	-283.03
186.904	-53.08
187.287	-459.63
187.669	302.11
188.051	176.54
188.433	89.84
188.815	72.05
189.197	57.29
189.579	55.75
189.961	51.69
190.342	40.86
190.724	49.86
191.106	59.93
191.488	74.28
191.869	83.27
192.251	77.02
192.633	85.61
193.014	72.42
193.396	62.58
193.777	73.25
194.159	53.93
194.54	52.2
194.922	35.52
195.303	28.74
195.684	26.25
196.065	22.77
196.447	27.08
196.828	30.97
197.209	28.34
197.59	20.37
197.971	9.93
198.352	13.66
198.733	11.45
199.114	22.64
199.495	15.77
199.876	14.3
200.257	15.08
200.638	8.16
201.018	13.81
201.399	17.19
201.78	14.55
202.16	23.46
202.541	23.74
202.922	14.26
203.302	16.5
203.683	5.63
204.063	2.35
204.444	-0.11
204.824	13.57
205.204	25.71
205.585	39.35
205.965	46.45
206.345	51.61
206.725	40.19
207.106	15.05
207.486	3.7
207.866	11.04
208.246	18.38
208.626	13.15
209.006	9.05
209.386	5.47
209.766	-3.02
210.145	5.16
210.525	11.7
210.905	14.94
211.285	15.71
211.664	14.3
212.044	20.93
212.424	24.07
212.803	7.06
213.183	3.59
213.562	-3.84
213.942	13.12
214.321	5.83
214.701	2.55
215.08	13.12
215.459	25
215.838	20.87
216.218	23.25
216.597	32.72
216.976	42.29
217.355	56.19
217.734	48.81
218.113	35.88
218.492	35.74
218.871	41.33
219.25	48.26
219.629	41.62
220.008	28.05
220.387	31.65
220.766	38.03
221.144	29.01
221.523	29.45
221.902	16.86
222.28	11.74
222.659	25
223.037	16.4
223.416	15.04
223.794	6.41
224.173	5.09
224.551	2.57
224.929	1.03
225.308	3.2
225.686	9.91
226.064	10.95
226.442	7.69
226.821	5.5
227.199	0.89
227.577	2.66
227.955	4.87
228.333	3.03
228.711	0.62
229.089	4.12
229.467	3.96
229.845	4.65
230.222	6.65
230.6	4.31
230.978	3.59
231.356	5.43
231.733	5.5
232.111	5.71
232.488	7.17
232.866	6.32
233.243	4.41
233.621	5.34
233.998	8.66
234.376	8.23
234.753	7.86
235.13	8.79
235.508	9.82
235.885	10.03
236.262	9.89
236.639	11.21
237.016	11.55
237.393	11.14
237.77	9.97
238.147	9.59
238.524	9.14
238.901	10.1
239.278	9.05
239.655	10.14
240.032	9.6
240.409	8.76
240.785	8.74
241.162	8.83
241.539	8.52
241.915	7.44
242.292	7.19
242.668	7.31
243.045	6.89
243.421	6.46
243.798	5.93
244.174	5.78
244.551	5.97
244.927	5.73
245.303	5.97
245.679	5.98
246.056	5.61
246.432	5.62
246.808	5.6
247.184	5.27
247.56	4.78
247.936	4.8
248.312	5.02
248.688	4.9
249.064	4.84
249.44	4.75
249.815	4.88
250.191	5.09
250.567	5.02
250.943	5.12
251.318	5.4
251.694	5.64
252.069	5.66
252.445	5.37
252.82	5.38
253.196	5.26
253.571	5.23
253.947	5.66
254.322	5.78
254.697	5.8
255.073	5.95
255.448	5.89
255.823	5.71
256.198	5.47
256.573	5.63
256.948	5.64
257.323	5.63
257.698	5.61
258.073	5.51
258.448	5.41
258.823	5.26
259.198	5.03
259.573	5.02
259.948	4.88
260.322	4.98
260.697	4.88
261.072	4.84
261.446	5.05
261.821	4.98
262.195	5
262.57	4.84
262.944	4.96
263.319	5.14
263.693	5.1
264.067	5.06
264.442	5.09
264.816	5.02
265.19	4.94
265.564	4.93
265.938	4.82
266.313	4.91
266.687	4.94
267.061	5.21
267.435	5.17
267.809	5.25
268.183	5.28
268.556	5.23
268.93	5.22
269.304	5.03
269.678	5.11
270.051	4.88
270.425	4.85
270.799	4.72
271.172	4.66
271.546	4.68
271.919	4.76
272.293	4.6
272.666	4.69
273.04	4.75
273.413	4.61
273.787	4.76
274.16	4.77
274.533	4.76
274.906	4.61
275.279	4.55
275.653	4.66
276.026	4.55
276.399	4.6
276.772	4.46
277.145	4.38
277.518	4.29
277.891	4.42
278.263	4.26
278.636	4.27
279.009	4.2
279.382	4.43
279.755	4.23
280.127	4.4
280.5	4.28
280.872	4.28
281.245	4.26
281.617	4.35
281.99	4.49
282.362	4.59
282.735	4.47
283.107	4.53
283.479	4.51
283.852	4.48
284.224	4.58
284.596	4.73
284.968	4.77
285.34	4.73
285.713	4.7
286.085	4.88
286.457	4.97
286.829	5.03
287.201	4.94
287.572	5.01
287.944	4.91
288.316	5.01
288.688	4.97
289.06	5.08
289.431	4.99
289.803	4.88
290.175	4.88
290.546	5.03
290.918	4.97
291.289	4.85
291.661	4.9
292.032	4.87
292.403	4.84
292.775	4.9
293.146	5.01
293.517	5.05
293.889	4.99
294.26	4.92
294.631	5.06
295.002	4.97
295.373	4.87
295.744	4.9
296.115	4.84
296.486	4.81
296.857	4.81
297.228	4.78
297.599	4.68
297.97	4.73
298.34	4.76
298.711	4.76
299.082	4.9
299.452	4.99
299.823	5.02
300.194	4.98
300.564	4.92
300.935	4.85
301.305	4.79
301.676	4.85
302.046	4.82
302.416	4.68
302.787	4.66
303.157	4.75
303.527	4.78
303.897	4.93
304.267	4.94
304.637	4.94
305.008	5.03
305.378	5.23
305.748	5.17
306.117	5.07
306.487	5.17
306.857	5.14
307.227	4.94
307.597	4.85
307.967	4.87
308.336	4.93
308.706	4.94
309.076	4.83
309.445	4.71
309.815	4.59
310.184	4.55
310.554	4.64
310.923	4.63
311.293	4.6
311.662	4.51
312.031	4.51
312.401	4.61
312.77	4.5
313.139	4.48
313.508	4.44
313.877	4.44
314.246	4.33
314.616	4.3
314.985	4.39
315.353	4.36
315.722	4.43
316.091	4.31
316.46	4.14
316.829	4.3
317.198	4.45
317.567	4.56
317.935	4.63
318.304	4.65
318.672	4.59
319.041	4.59
319.41	4.44
319.778	4.52
320.147	4.43
320.515	4.46
320.883	4.33
321.252	4.38
321.62	4.52
321.988	4.62
322.357	4.5
322.725	4.41
323.093	4.37
323.461	4.31
323.829	4.26
324.197	4.47
324.565	4.53
324.933	4.55
325.301	4.58
325.669	4.56
326.037	4.47
326.405	4.5
326.772	4.53
327.14	4.67
327.508	4.58
327.875	4.52
328.243	4.57
328.61	4.51
328.978	4.47
329.346	4.36
329.713	4.19
330.08	4.34
330.448	4.3
330.815	4.2
331.182	4.25
331.55	4.42
331.917	4.41
332.284	4.39
332.651	4.29
333.018	4.28
333.385	4.2
333.752	4.33
334.119	4.4
334.486	4.3
334.853	4.25
335.22	4.33
335.587	4.44
335.954	4.36
336.32	4.46
336.687	4.52
337.054	4.52
337.42	4.65
337.787	4.57
338.153	4.61
338.52	4.79
338.886	4.68
339.253	4.58
339.619	4.55
339.986	4.51
340.352	4.6
340.718	4.65
341.084	4.75
341.451	4.78
341.817	4.77
342.183	4.82
342.549	4.88
342.915	4.83
343.281	4.69
343.647	4.71
344.013	4.69
344.379	4.63
344.745	4.55
345.11	4.47
345.476	4.57
345.842	4.54
346.208	4.51
346.573	4.61
346.939	4.7
347.304	4.66
347.67	4.59
348.035	4.47
348.401	4.45
348.766	4.38
349.132	4.31
349.497	4.32
349.862	4.3
350.228	4.26
350.593	4.21
350.958	4.27
351.323	4.34
351.688	4.29
352.053	4.33
352.418	4.35
352.783	4.44
353.148	4.37
353.513	4.47
353.878	4.5
354.243	4.47
354.608	4.45
354.972	4.53
355.337	4.66
355.702	4.79
356.066	4.79
356.431	4.76
356.795	4.73
357.16	4.67
357.524	4.6
357.889	4.54
358.253	4.54
358.618	4.56
358.982	4.53
359.346	4.53
359.71	4.49
360.075	4.51
360.439	4.54
360.803	4.5
361.167	4.45
361.531	4.41
361.895	4.38
362.259	4.31
362.623	4.24
362.987	4.23
363.351	4.14
363.714	4.14
364.078	4.14
364.442	4.14
364.806	4.17
365.169	4.2
365.533	4.25
365.896	4.24
366.26	4.18
366.623	4.15
366.987	4.16
367.35	4.2
367.714	4.14
368.077	4.01
368.44	4
368.803	4
369.167	3.94
369.53	3.93
369.893	3.98
370.256	4.03
370.619	4.03
370.982	4.01
371.345	3.96
371.708	3.99
372.071	4.02
372.434	3.97
372.797	4.01
373.159	3.95
373.522	3.96
373.885	4.02
374.247	3.98
374.61	4
374.973	3.95
375.335	3.94
375.698	3.95
376.06	3.92
376.423	3.91
376.785	4.01
377.147	3.98
377.51	3.97
377.872	3.98
378.234	3.93
378.596	3.96
378.958	3.99
379.321	3.96
379.683	3.95
380.045	3.95
380.407	3.9
380.769	3.92
381.13	3.94
381.492	3.89
381.854	3.95
382.216	3.94
382.578	4
382.939	4.01
383.301	4
383.663	4.04
384.024	4.04
384.386	4.01
384.747	4.05
385.109	4.07
385.47	4.04
385.832	4.1
386.193	4.1
386.554	4.1
386.916	4.1
387.277	4.09
387.638	4.08
387.999	4.09
388.36	4.09
388.721	4.09
389.082	4.1
389.443	4.03
389.804	4.02
390.165	4
390.526	3.99
390.887	3.97
391.248	3.98
391.609	3.99
391.969	3.97
392.33	3.94
392.691	3.93
393.051	3.92
393.412	3.88
393.772	3.89
394.133	3.89
394.493	3.88
394.854	3.87
395.214	3.84
395.574	3.84
395.935	3.84
396.295	3.83
396.655	3.87
397.015	3.87
397.376	3.87
397.736	3.87
398.096	3.89
398.456	3.92
398.816	3.92
399.176	3.89
399.535	3.88
399.895	3.88
400.255	3.88
400.615	3.86
400.975	3.87
401.334	3.86
401.694	3.83
402.054	3.83
402.413	3.84
402.773	3.86
403.132	3.85
403.492	3.82
403.851	3.81
404.211	3.78
404.57	3.79
404.929	3.79
405.288	3.78
405.648	3.79
406.007	3.79
406.366	3.76
406.725	3.76
407.084	3.8
407.443	3.79
407.802	3.79
408.161	3.82
408.52	3.78
408.879	3.77
409.238	3.8
409.596	3.78
409.955	3.8
410.314	3.82
410.673	3.82
411.031	3.86
411.39	3.85
411.748	3.86
412.107	3.84
412.465	3.84
412.824	3.83
413.182	3.81
413.54	3.82
413.899	3.83
414.257	3.83
414.615	3.82
414.974	3.83
415.332	3.81
415.69	3.78
416.048	3.78
416.406	3.77
416.764	3.74
417.122	3.74
417.48	3.71
417.838	3.71
418.195	3.72
418.553	3.71
418.911	3.72
419.269	3.71
419.626	3.73
419.984	3.73
420.342	3.73
420.699	3.71
421.057	3.71
421.414	3.71
421.772	3.7
422.129	3.7
422.486	3.69
422.844	3.71
423.201	3.71
423.558	3.71
423.915	3.72
424.273	3.73
424.63	3.73
424.987	3.75
425.344	3.74
425.701	3.74
426.058	3.74
426.415	3.73
426.772	3.73
427.128	3.72
427.485	3.72
427.842	3.7
428.199	3.72
428.555	3.71
428.912	3.71
429.269	3.73
429.625	3.72
429.982	3.71
430.338	3.71
430.695	3.72
431.051	3.7
431.407	3.68
431.764	3.69
432.12	3.69
432.476	3.67
432.832	3.64
433.189	3.65
433.545	3.64
433.901	3.64
434.257	3.62
434.613	3.64
434.969	3.62
435.325	3.64
435.681	3.64
436.036	3.63
436.392	3.61
436.748	3.61
437.104	3.6
437.459	3.58
437.815	3.58
438.171	3.58
438.526	3.58
438.882	3.58
439.237	3.58
439.593	3.58
439.948	3.57
440.304	3.59
440.659	3.58
441.014	3.59
441.369	3.59
441.725	3.58
442.08	3.57
442.435	3.58
442.79	3.56
443.145	3.57
443.5	3.59
443.855	3.6
444.21	3.59
444.565	3.59
444.92	3.61
445.275	3.6
445.629	3.6
445.984	3.62
446.339	3.62
446.693	3.6
447.048	3.58
447.403	3.58
447.757	3.58
448.112	3.57
448.466	3.56
448.82	3.54
449.175	3.56
449.529	3.55
449.883	3.56
450.238	3.56
450.592	3.55
450.946	3.52
451.3	3.51
451.654	3.52
452.008	3.53
452.362	3.51
452.716	3.51
453.07	3.49
453.424	3.49
453.778	3.49
454.132	3.51
454.486	3.5
454.839	3.52
455.193	3.51
455.547	3.52
455.9	3.53
456.254	3.54
456.607	3.54
456.961	3.54
457.314	3.53
457.668	3.53
458.021	3.52
458.375	3.54
458.728	3.55
459.081	3.55
459.434	3.53
459.787	3.54
460.141	3.54
460.494	3.55
460.847	3.53
461.2	3.53
461.553	3.53
461.906	3.55
462.259	3.54
462.611	3.56
462.964	3.57
463.317	3.57
463.67	3.58
464.022	3.57
464.375	3.57
464.728	3.57
465.08	3.58
465.433	3.58
465.785	3.57
466.138	3.57
466.49	3.58
466.843	3.58
467.195	3.58
467.547	3.58
467.899	3.59
468.252	3.61
468.604	3.63
468.956	3.63
469.308	3.63
469.66	3.62
470.012	3.62
470.364	3.62
470.716	3.61
471.068	3.6
471.42	3.62
471.772	3.66
472.123	3.66
472.475	3.66
472.827	3.66
473.178	3.68
473.53	3.68
473.882	3.65
474.233	3.66
474.585	3.65
474.936	3.65
475.288	3.62
475.639	3.64
475.99	3.61
476.342	3.6
476.693	3.6
477.044	3.61
477.395	3.61
477.746	3.61
478.097	3.6
478.448	3.59
478.8	3.59
479.15	3.57
479.501	3.58
479.852	3.58
480.203	3.59
480.554	3.59
480.905	3.61
481.255	3.63
481.606	3.63
481.957	3.64
482.307	3.63
482.658	3.63
483.009	3.62
483.359	3.63
483.709	3.63
484.06	3.63
484.41	3.63
484.761	3.64
485.111	3.64
485.461	3.64
485.811	3.65
486.162	3.64
486.512	3.64
486.862	3.64
487.212	3.65
487.562	3.66
487.912	3.66
488.262	3.65
488.612	3.65
488.961	3.64
489.311	3.64
489.661	3.65
490.011	3.65
490.36	3.65
490.71	3.66
491.06	3.67
491.409	3.66
491.759	3.67
492.108	3.66
492.458	3.66
492.807	3.65
493.157	3.65
493.506	3.67
493.855	3.67
494.204	3.65
494.554	3.64
494.903	3.62
495.252	3.62
495.601	3.62
495.95	3.61
496.299	3.62
496.648	3.62
496.997	3.64
497.346	3.65
497.695	3.66
498.043	3.68
498.392	3.68
498.741	3.7
499.09	3.7
499.438	3.73
499.787	3.74
500.135	3.77
500.484	3.79
500.832	3.8
501.181	3.79
501.529	3.81
501.878	3.82
502.226	3.84
502.574	3.84
502.923	3.84
503.271	3.86
503.619	3.86
503.967	3.88
504.315	3.85
504.663	3.85
505.011	3.85
505.359	3.85
505.707	3.86
506.055	3.84
506.403	3.84
506.751	3.83
507.098	3.83
507.446	3.84
507.794	3.84
508.141	3.84
508.489	3.86
508.837	3.88
509.184	3.88
509.531	3.89
509.879	3.91
510.226	3.94
510.574	3.94
510.921	3.95
511.268	3.95
511.616	3.95
511.963	3.97
512.31	3.98
512.657	3.98
513.004	3.97
513.351	3.99
513.698	4
514.045	4
514.392	3.99
514.739	3.99
515.086	4.01
515.432	4.03
515.779	4.02
516.126	4.03
516.473	4.06
516.819	4.06
517.166	4.05
517.512	4.05
517.859	4.05
518.205	4.06
518.552	4.05
518.898	4.06
519.245	4.06
519.591	4.06
519.937	4.07
520.283	4.07
520.629	4.06
520.976	4.06
521.322	4.07
521.668	4.07
522.014	4.09
522.36	4.07
522.706	4.05
523.052	4.09
523.398	4.09
523.743	4.08
524.089	4.09
524.435	4.1
524.781	4.12
525.126	4.13
525.472	4.13
525.817	4.14
526.163	4.15
526.509	4.15
526.854	4.14
527.199	4.16
527.545	4.16
527.89	4.17
528.235	4.17
528.581	4.17
528.926	4.17
529.271	4.17
529.616	4.16
529.961	4.17
530.306	4.17
530.651	4.16
530.996	4.16
531.341	4.15
531.686	4.16
532.031	4.15
532.376	4.15
532.721	4.15
533.065	4.15
533.41	4.15
533.755	4.15
534.099	4.15
534.444	4.13
534.788	4.15
535.133	4.15
535.477	4.16
535.822	4.17
536.166	4.17
536.51	4.18
536.855	4.2
537.199	4.22
537.543	4.22
537.887	4.23
538.231	4.24
538.576	4.25
538.92	4.25
539.264	4.25
539.608	4.27
539.951	4.27
540.295	4.28
540.639	4.3
540.983	4.31
541.327	4.34
541.671	4.34
542.014	4.32
542.358	4.32
542.701	4.32
543.045	4.32
543.389	4.31
543.732	4.32
544.075	4.33
544.419	4.3
544.762	4.31
545.105	4.32
545.449	4.3
545.792	4.31
546.135	4.32
546.478	4.32
546.821	4.31
547.165	4.31
547.508	4.33
547.851	4.32
548.194	4.31
548.536	4.28
548.879	4.31
549.222	4.31
549.565	4.31
549.908	4.32
550.25	4.33
550.593	4.36
550.936	4.35
551.278	4.32
551.621	4.34
551.963	4.34
552.306	4.34
552.648	4.36
552.991	4.38
553.333	4.36
553.675	4.36
554.017	4.39
554.36	4.37
554.702	4.38
555.044	4.38
555.386	4.4
555.728	4.38
556.07	4.38
556.412	4.38
556.754	4.4
557.096	4.41
557.438	4.39
557.78	4.38
558.121	4.37
558.463	4.38
558.805	4.37
559.147	4.37
559.488	4.35
559.83	4.33
560.171	4.3
560.513	4.31
560.854	4.3
561.196	4.28
561.537	4.29
561.878	4.25
562.22	4.26
562.561	4.23
562.902	4.28
563.243	4.27
563.584	4.26
563.925	4.24
564.266	4.25
564.607	4.23
564.948	4.23
565.289	4.25
565.63	4.25
565.971	4.26
566.312	4.27
566.653	4.29
566.993	4.3
567.334	4.31
567.675	4.3
568.015	4.3
568.356	4.29
568.696	4.32
569.037	4.33
569.377	4.32
569.718	4.34
570.058	4.32
570.398	4.32
570.739	4.35
571.079	4.36
571.419	4.37
571.759	4.4
572.099	4.41
572.439	4.4
572.779	4.4
573.119	4.41
573.459	4.43
573.799	4.44
574.139	4.44
574.479	4.45
574.819	4.48
575.158	4.48
575.498	4.49
575.838	4.48
576.177	4.45
576.517	4.45
576.856	4.48
577.196	4.5
577.535	4.49
577.875	4.46
578.214	4.45
578.553	4.48
578.893	4.47
579.232	4.46
579.571	4.47
579.91	4.46
580.25	4.44
580.589	4.41
580.928	4.44
581.267	4.48
581.606	4.46
581.945	4.46
582.283	4.44
582.622	4.43
582.961	4.43
583.3	4.47
583.639	4.5
583.977	4.49
584.316	4.48
584.654	4.49
584.993	4.49
585.332	4.5
585.67	4.52
586.008	4.51
586.347	4.52
586.685	4.5
587.024	4.55
587.362	4.54
587.7	4.53
588.038	4.52
588.376	4.49
588.715	4.49
589.053	4.52
589.391	4.57
589.729	4.59
590.067	4.58
590.404	4.53
590.742	4.52
591.08	4.51
591.418	4.52
591.756	4.51
592.093	4.53
592.431	4.53
592.769	4.55
593.106	4.56
593.444	4.52
593.781	4.56
594.119	4.53
594.456	4.57
594.793	4.56
595.131	4.53
595.468	4.55
595.805	4.58
596.143	4.56
596.48	4.53
596.817	4.55
597.154	4.55
597.491	4.59
597.828	4.61
598.165	4.63
598.502	4.64
598.839	4.67
599.176	4.66
599.512	4.66
599.849	4.62
600.186	4.6
600.523	4.66
600.859	4.66
601.196	4.69
601.532	4.64
601.869	4.65
602.205	4.67
602.542	4.65
602.878	4.61
603.215	4.58
603.551	4.62
603.887	4.61
604.223	4.6
604.56	4.6
604.896	4.59
605.232	4.6
605.568	4.59
605.904	4.59
606.24	4.62
606.576	4.61
606.912	4.63
607.248	4.65
607.583	4.64
607.919	4.62
608.255	4.61
608.591	4.64
608.926	4.64
609.262	4.66
609.597	4.67
609.933	4.71
610.268	4.72
610.604	4.7
610.939	4.67
611.275	4.65
611.61	4.65
611.945	4.63
612.281	4.6
612.616	4.62
612.951	4.63
613.286	4.68
613.621	4.7
613.956	4.69
614.291	4.73
614.626	4.75
614.961	4.76
615.296	4.79
615.631	4.8
615.966	4.82
616.3	4.82
616.635	4.8
616.97	4.8
617.304	4.8
617.639	4.84
617.973	4.88
618.308	4.96
618.642	4.96
618.977	4.98
619.311	5.01
619.646	4.98
619.98	4.94
620.314	4.9
620.648	4.92
620.983	4.92
621.317	4.88
621.651	4.85
621.985	4.89
622.319	4.82
622.653	4.81
622.987	4.82
623.321	4.82
623.655	4.85
623.988	4.89
624.322	4.9
624.656	4.89
624.99	4.9
625.323	4.89
625.657	4.92
625.99	4.93
626.324	4.9
626.657	4.91
626.991	4.98
627.324	4.95
627.658	4.97
627.991	5
628.324	5.03
628.657	5.02
628.991	5
629.324	5.06
629.657	5.11
629.99	5.08
630.323	5.06
630.656	5.04
630.989	5.04
631.322	5.04
631.655	5.07
631.987	5.05
632.32	5.06
632.653	5
632.986	5.01
633.318	5.01
633.651	5.05
633.984	5
634.316	4.98
634.649	5.01
634.981	4.99
635.313	4.92
635.646	4.92
635.978	4.96
636.31	4.92
636.643	4.91
636.975	4.93
637.307	4.95
637.639	4.95
637.971	4.93
638.303	4.96
638.635	4.82
638.967	4.85
639.299	4.87
639.631	4.88
639.963	4.85
640.295	4.87
640.626	4.84
640.958	4.86
641.29	4.84
641.621	4.75
641.953	4.73
642.285	4.8
642.616	4.9
642.948	4.86
643.279	4.88
643.61	4.84
643.942	4.86
644.273	4.83
644.604	4.81
644.936	4.78
645.267	4.83
645.598	4.89
645.929	4.92
646.26	4.88
646.591	4.91
646.922	4.86
647.253	4.86
647.584	4.84
647.915	4.74
648.245	4.86
648.576	4.89
648.907	4.87
649.238	4.85
649.568	4.81
649.899	4.81
650.229	4.82
650.56	4.83
650.89	4.85
651.221	4.93
651.551	4.9
651.882	4.9
652.212	4.83
652.542	4.85
652.872	4.8
653.203	4.78
653.533	4.77
653.863	4.78
654.193	4.77
654.523	4.83
654.853	4.9
655.183	4.86
655.513	4.9
655.843	4.88
656.172	4.86
656.502	4.84
656.832	4.84
657.162	4.86
657.491	4.88
657.821	4.88
658.15	4.83
658.48	4.88
658.809	4.95
659.139	4.95
659.468	5
659.798	5.02
660.127	5.05
660.456	5.1
660.785	5.14
661.115	5.13
661.444	5.13
661.773	5.16
662.102	5.24
662.431	5.23
662.76	5.27
663.089	5.32
663.418	5.29
663.747	5.22
664.076	5.24
664.404	5.22
664.733	5.27
665.062	5.34
665.39	5.31
665.719	5.21
666.048	5.31
666.376	5.28
666.705	5.27
667.033	5.24
667.362	5.21
667.69	5.21
668.018	5.2
668.347	5.14
668.675	5.09
669.003	4.98
669.331	5.03
669.659	5.07
669.987	5.07
670.315	5.1
670.643	5.22
670.971	5.29
671.299	5.35
671.627	5.31
671.955	5.29
672.283	5.27
672.61	5.31
672.938	5.26
673.266	5.24
673.593	5.28
673.921	5.37
674.249	5.34
674.576	5.37
674.904	5.45
675.231	5.49
675.558	5.54
675.886	5.54
676.213	5.51
676.54	5.49
676.867	5.48
677.195	5.5
677.522	5.43
677.849	5.33
678.176	5.31
678.503	5.26
678.83	5.27
679.157	5.31
679.484	5.34
679.81	5.33
680.137	5.31
680.464	5.3
680.791	5.24
681.117	5.22
681.444	5.19
681.771	5.17
682.097	5.21
682.424	5.21
682.75	5.2
683.077	5.21
683.403	5.18
683.729	5.17
684.056	5.19
684.382	5.28
684.708	5.25
685.034	5.17
685.36	5.21
685.686	5.17
686.012	5.2
686.339	5.16
686.664	5.28
686.99	5.34
687.316	5.31
687.642	5.32
687.968	5.37
688.294	5.41
688.619	5.42
688.945	5.38
689.271	5.33
689.596	5.36
689.922	5.3
690.247	5.33
690.573	5.36
690.898	5.36
691.224	5.21
691.549	5.35
691.874	5.43
692.2	5.41
692.525	5.42
692.85	5.44
693.175	5.45
693.5	5.36
693.825	5.4
694.15	5.29
694.475	5.3
694.8	5.2
695.125	5.16
695.45	5.15
695.775	5.14
696.099	5.21
696.424	5.21
696.749	5.19
697.073	5.21
697.398	5.22
697.723	5.21
698.047	5.25
698.372	5.18
698.696	5.16
699.02	5.18
699.345	5.14
699.669	5.11
699.993	5.13
700.318	5.2
700.642	5.15
700.966	5.28
701.29	5.26
701.614	5.38
701.938	5.39
702.262	5.48
702.586	5.46
702.91	5.4
703.234	5.39
703.557	5.48
703.881	5.52
704.205	5.54
704.529	5.5
704.852	5.49
705.176	5.45
705.499	5.38
705.823	5.43
706.146	5.55
706.47	5.59
706.793	5.51
707.117	5.38
707.44	5.47
707.763	5.35
708.086	5.34
708.409	5.24
708.733	5.22
709.056	5.16
709.379	5.3
709.702	5.34
710.025	5.42
710.348	5.43
710.671	5.33
710.993	5.35
711.316	5.46
711.639	5.49
711.962	5.61
712.284	5.72
712.607	5.72
712.93	5.66
713.252	5.62
713.575	5.77
713.897	5.8
714.22	5.81
714.542	6.04
714.864	6.19
715.187	6.3
715.509	6.35
715.831	6.42
716.153	6.32
716.475	6.34
716.798	6.32
717.12	6.3
717.442	6.38
717.764	6.29
718.085	6.11
718.407	6.09
718.729	6.12
719.051	6.16
719.373	6.05
719.695	6.04
720.016	6.14
720.338	6.22
720.659	6.22
720.981	6.15
721.302	6.05
721.624	6.02
721.945	6.03
722.267	6.06
722.588	5.96
722.909	6.11
723.231	6.03
723.552	6
723.873	6.07
724.194	6.11
724.515	6.03
724.836	6.27
725.157	6.21
725.478	6.05
725.799	6.02
726.12	6.1
726.441	6.14
726.762	6.15
727.083	6.14
727.403	6.03
727.724	5.94
728.045	5.88
728.365	5.66
728.686	5.47
729.006	5.61
729.327	5.59
729.647	5.58
729.967	5.65
730.288	5.68
730.608	5.54
730.928	5.48
731.249	5.58
731.569	5.58
731.889	5.61
732.209	5.57
732.529	5.56
732.849	5.56
733.169	5.52
733.489	5.54
733.809	5.26
734.129	5.35
734.448	5.42
734.768	5.4
735.088	5.65
735.408	5.74
735.727	5.77
736.047	5.83
736.366	5.69
736.686	5.61
737.005	5.6
737.325	5.62
737.644	5.57
737.963	5.68
738.283	5.47
738.602	5.62
738.921	5.7
739.24	5.76
739.56	5.74
739.879	5.85
740.198	5.74
740.517	6.02
740.836	6.05
741.155	6.09
741.473	6.19
741.792	6.07
742.111	6.17
742.43	6.12
742.748	6.15
743.067	6.22
743.386	6.41
743.704	6.51
744.023	6.74
744.341	6.95
744.66	7.07
744.978	7.04
745.297	7.13
745.615	7.14
745.933	7.15
746.252	7.25
746.57	7
746.888	7.15
747.206	7.14
747.524	7.16
747.842	7.14
748.16	7.4
748.478	7.43
748.796	7.52
749.114	7.55
749.432	7.42
749.749	7.47
750.067	7.34
750.385	7.16
750.703	6.98
751.02	7.02
751.338	6.87
751.655	7.11
751.973	7.28
752.29	7.46
752.608	7.57
752.925	7.68
753.242	7.86
753.56	7.62
753.877	7.5
754.194	7.62
754.511	7.78
754.828	7.24
755.145	7.1
755.462	6.88
755.779	7.05
756.096	7.13
756.413	7.21
756.73	7.27
757.047	7.15
757.364	7.18
757.68	7
757.997	7.04
758.314	6.95
758.63	6.74
758.947	6.83
759.264	6.78
759.58	6.49
759.896	6.65
760.213	6.83
760.529	6.88
760.846	6.65
761.162	6.35
761.478	6.45
761.794	6.46
762.11	6.51
762.426	6.26
762.743	6.27
763.059	6.22
763.375	6.36
763.69	6.7
764.006	6.84
764.322	6.86
764.638	6.91
764.954	7.22
765.27	7.07
765.585	6.96
765.901	6.98
766.216	7.14
766.532	6.9
766.848	6.89
767.163	6.86
767.478	6.98
767.794	7.21
768.109	7.48
768.424	7.52
768.74	7.62
769.055	7.81
769.37	7.95
769.685	8.05
770	8.01
770.315	7.84
770.63	7.71
770.945	7.66
771.26	7.7
771.575	7.39
771.89	7.48
772.205	7.42
772.52	7.29
772.834	7.28
773.149	7.4
773.464	7.3
773.778	7.67
774.093	7.4
774.407	7.57
774.722	7.37
775.036	7.45
775.351	7.23
775.665	6.72
775.979	6.59
776.293	6.39
776.608	6.57
776.922	6.57
777.236	6.99
777.55	7.08
777.864	6.81
778.178	6.8
778.492	7.23
778.806	7.3
779.12	7.43
779.434	7.71
779.747	7.76
780.061	7.84
780.375	7.59
780.689	8.14
781.002	7.88
781.316	8.3
781.629	8.62
781.943	9
782.256	9.35
782.57	9.36
782.883	9.56
783.196	9.33
783.51	9.2
783.823	8.81
784.136	9.04
784.449	9.67
784.762	9.89
785.075	9.63
785.388	9.75
785.701	9.68
786.014	9.49
786.327	9.29
786.64	9.67
786.953	9.71
787.266	9.65
787.578	9.57
787.891	9.46
788.204	9.1
788.516	9.13
788.829	9.06
789.141	9.28
789.454	9.13
789.766	9.17
790.079	9.34
790.391	9.27
790.703	9.55
791.016	8.83
791.328	8.89
791.64	8.92
791.952	8.53
792.264	8.61
792.576	8.47
792.888	8.86
793.2	8.69
793.512	8.58
793.824	8.59
794.136	8.42
794.448	8.49
794.76	8.58
795.071	8.52
795.383	8.27
795.695	8.14
796.006	8.21
796.318	8.05
796.629	8.36
796.941	8.57
797.252	8.53
797.564	9.05
797.875	9.11
798.186	9.21
798.497	9.43
798.809	9.46
799.12	9.6
799.431	9.56
799.742	9.14
800.053	9.64
800.364	9.46
800.675	9.73
800.986	9.27
801.297	9.22
801.608	9.01
801.918	9.74
802.229	9.92
802.54	9.84
802.851	10.47
803.161	10.23
803.472	9.56
803.782	9.5
804.093	9.48
804.403	9.02
804.714	9.26
805.024	9.5
805.334	9.33
805.645	9.65
805.955	9.25
806.265	9.92
806.575	9.67
806.885	9.43
807.195	9.65
807.505	9.85
807.815	9.78
808.125	10.25
808.435	10.23
808.745	9.71
809.055	9.92
809.365	9.51
809.674	10
809.984	11.01
810.294	10.32
810.603	10.48
810.913	11.46
811.222	11.81
811.532	11.58
811.841	11.77
812.151	12.48
812.46	13.52
812.769	13.1
813.079	12.21
813.388	12.82
813.697	13.06
814.006	13.05
814.315	13.29
814.624	13
814.933	13.19
815.242	14.09
815.551	14.34
815.86	14.57
816.169	13.74
816.478	12.87
816.786	13.57
817.095	13.27
817.404	12.25
817.712	11.46
818.021	11.78
818.33	11.03
818.638	9.98
818.947	9.68
819.255	9.52
819.563	9.68
819.872	9.27
820.18	9.3
820.488	9.15
820.796	9.17
821.105	9.05
821.413	8.85
821.721	8.71
822.029	8.71
822.337	8.73
822.645	8.9
822.953	8.84
823.26	8.69
823.568	8.72
823.876	8.78
824.184	8.79
824.491	8.75
824.799	8.89
825.107	8.98
825.414	8.91
825.722	9
826.029	9.07
826.337	9.1
826.644	9.1
826.951	9.3
827.259	9.09
827.566	9.27
827.873	9.39
828.18	9.41
828.488	9.4
828.795	9.24
829.102	9.22
829.409	9.55
829.716	9.72
830.023	9.46
830.329	9.31
830.636	9.57
830.943	9.76
831.25	9.8
831.557	9.42
831.863	9.47
832.17	9.32
832.476	9.5
832.783	10.02
833.089	9.73
833.396	9.79
833.702	10.58
834.009	10.56
834.315	10.34
834.621	10.15
834.928	10.39
835.234	10.22
835.54	9.78
835.846	9.64
836.152	9.85
836.458	9.92
836.764	9.96
837.07	8.91
837.376	8.26
837.682	8.57
837.988	8.68
838.293	8.45
838.599	8.47
838.905	8.15
839.211	8.11
839.516	8.1
839.822	7.6
840.127	7.08
840.433	6.98
840.738	6.93
841.044	7.56
841.349	7.4
841.654	8.34
841.959	9.15
842.265	8.83
842.57	8.25
842.875	8.67
843.18	9.31
843.485	11.65
843.79	12.69
844.095	12.15
844.4	13.35
844.705	14.05
845.01	14.61
845.315	15.47
845.619	14.24
845.924	14.25
846.229	14.06
846.533	14.28
846.838	13.44
847.142	13.69
847.447	11.53
847.751	11.33
848.056	9.17
848.36	8.77
848.664	8.15
848.969	8.77
849.273	8.53
849.577	7.82
849.881	6.13
850.185	6.94
850.489	6.56
850.794	4.94
851.097	5.03
851.401	4.11
851.705	2.84
852.009	4.19
852.313	4.84
852.617	4.42
852.92	5.22
853.224	5.91
853.528	7.39
853.831	7.93
854.135	7.28
854.438	8.82
854.742	9.45
855.045	10.59
855.349	10.53
855.652	10.56
855.955	12.4
856.259	12.85
856.562	11.08
856.865	11.9
857.168	12.97
857.471	13.83
857.774	15.08
858.077	15.4
858.38	16.48
858.683	16.79
858.986	17.98
859.289	18.64
859.592	18.96
859.894	19.41
860.197	20.13
860.5	22.1
860.802	21.72
861.105	20.65
861.407	19.62
861.71	19.69
862.012	18.68
862.315	16.77
862.617	15.63
862.919	15.24
863.222	16.16
863.524	14.98
863.826	14.42
864.128	13.28
864.43	14.92
864.732	14.85
865.034	16.05
865.336	16.87
865.638	14.71
865.94	12.98
866.242	11.67
866.544	14.02
866.846	12.44
867.147	12.73
867.449	13.25
867.751	15.47
868.052	14.39
868.354	16.73
868.655	17.52
868.957	18.22
869.258	19.12
869.56	17.81
869.861	19.63
870.162	18.17
870.463	21.44
870.765	20.45
871.066	18.74
871.367	18.47
871.668	16.87
871.969	16.16
872.27	15.15
872.571	15.46
872.872	12.67
873.173	10.13
873.473	8.5
873.774	8.81
874.075	6.61
874.376	5.68
874.676	5.27
874.977	4.35
875.277	5.99
875.578	5.29
875.878	4.1
876.179	3.07
876.479	4.18
876.78	1.26
877.08	-0.36
877.38	-1.3
877.68	-3.61
877.981	-3.44
878.281	-2.59
878.581	0.95
